PE UV       SUBTECH     SPECTRUM    ASCII       PEDS        4.00        
   -1
CICIMAUCR0210-1.Sample.ASC
24/06/07
13:54:55.00
24/06/07
13:54:55.00
Vinicio Soto Monge
C. resplendens. Sex F. Ventral
250,000000
1
Lambda 1050
1050L1511233
PerkinElmer UV WinLab 6.3.2.0749 / 2.02.05 Lambda 900 UV/VIS/NIR, Aug  7 2015 09:38:08

0
0
3350/servo 860,8/2
0
0
UV/VIS
1
1
1
DoubleDePol,CommonBeamDepol,RBeamAtt,SBeamAtt,60mm sphere, WB InGaAs Detector
0
0
0
0
Program
Program
3350/servo 860,8/2
3350/0,2 860,8/0,2
3350/0,2 860,8/0,2
0
15.00
 
 
 
0
 
860,8
319,2
860,8
Front
100
on
S:100 R:100
0
0
0
0
 
0
 
 
 
0
 
 
0
0
0
0
0
 
 
 
 
0
0


0
0
#HDR
-1
-1
#GR
nm
%R
1.0
0.0
2500,000000
-1,000000
2251
8
55,576300
3,871600
#DATA
2482.000000	4.841843
2481.000000	4.803818
2480.000000	4.757102
2479.000000	4.756233
2478.000000	4.793497
2477.000000	4.740372
2476.000000	4.728095
2475.000000	4.737655
2474.000000	4.742110
2473.000000	4.742870
2472.000000	4.745369
2471.000000	4.783285
2470.000000	4.759710
2469.000000	4.790021
2468.000000	4.733418
2467.000000	4.735048
2466.000000	4.744717
2465.000000	4.764381
2464.000000	4.771769
2463.000000	4.763186
2462.000000	4.787739
2461.000000	4.776223
2460.000000	4.800994
2459.000000	4.809794
2458.000000	4.792085
2457.000000	4.798278
2456.000000	4.792628
2455.000000	4.842929
2454.000000	4.867483
2453.000000	4.886821
2452.000000	4.867157
2451.000000	4.909527
2450.000000	4.942011
2449.000000	4.941250
2448.000000	4.959176
2447.000000	4.985685
2446.000000	4.998831
2445.000000	5.009477
2444.000000	5.011868
2443.000000	5.040658
2442.000000	5.064342
2441.000000	5.087048
2440.000000	5.121053
2439.000000	5.131374
2438.000000	5.147779
2437.000000	5.145388
2436.000000	5.160055
2435.000000	5.205142
2434.000000	5.226001
2433.000000	5.247838
2432.000000	5.283364
2431.000000	5.295857
2430.000000	5.288470
2429.000000	5.301616
2428.000000	5.309981
2427.000000	5.298465
2426.000000	5.323127
2425.000000	5.369625
2424.000000	5.379729
2423.000000	5.386356
2422.000000	5.385161
2421.000000	5.407867
2420.000000	5.418623
2419.000000	5.423186
2418.000000	5.441655
2417.000000	5.461862
2416.000000	5.472726
2415.000000	5.474682
2414.000000	5.494889
2413.000000	5.496519
2412.000000	5.499126
2411.000000	5.494238
2410.000000	5.502386
2409.000000	5.520963
2408.000000	5.535630
2407.000000	5.555729
2406.000000	5.550949
2405.000000	5.553991
2404.000000	5.567136
2403.000000	5.571373
2402.000000	5.585823
2401.000000	5.601250
2400.000000	5.613635
2399.000000	5.644707
2398.000000	5.664588
2397.000000	5.666544
2396.000000	5.670672
2395.000000	5.694682
2394.000000	5.703047
2393.000000	5.708914
2392.000000	5.735749
2391.000000	5.738356
2390.000000	5.745635
2389.000000	5.749437
2388.000000	5.752262
2387.000000	5.766168
2386.000000	5.773339
2385.000000	5.781595
2384.000000	5.774751
2383.000000	5.777576
2382.000000	5.774642
2381.000000	5.790178
2380.000000	5.804736
2379.000000	5.789309
2378.000000	5.781921
2377.000000	5.787679
2376.000000	5.794198
2375.000000	5.793220
2374.000000	5.783008
2373.000000	5.774642
2372.000000	5.776815
2371.000000	5.768776
2370.000000	5.744657
2369.000000	5.724993
2368.000000	5.732272
2367.000000	5.733358
2366.000000	5.720104
2365.000000	5.711630
2364.000000	5.698919
2363.000000	5.677734
2362.000000	5.655136
2361.000000	5.660242
2360.000000	5.658721
2359.000000	5.627324
2358.000000	5.610158
2357.000000	5.605596
2356.000000	5.581151
2355.000000	5.568331
2354.000000	5.578218
2353.000000	5.575176
2352.000000	5.563660
2351.000000	5.566050
2350.000000	5.586583
2349.000000	5.597556
2348.000000	5.587670
2347.000000	5.595383
2346.000000	5.608529
2345.000000	5.629823
2344.000000	5.647097
2343.000000	5.669368
2342.000000	5.678712
2341.000000	5.680884
2340.000000	5.693378
2339.000000	5.696312
2338.000000	5.705220
2337.000000	5.718692
2336.000000	5.746395
2335.000000	5.748786
2334.000000	5.736726
2333.000000	5.734879
2332.000000	5.716084
2331.000000	5.721951
2330.000000	5.721299
2329.000000	5.702287
2328.000000	5.677082
2327.000000	5.661546
2326.000000	5.644598
2325.000000	5.637645
2324.000000	5.614613
2323.000000	5.599729
2322.000000	5.572242
2321.000000	5.535196
2320.000000	5.522593
2319.000000	5.499561
2318.000000	5.475877
2317.000000	5.473596
2316.000000	5.435788
2315.000000	5.389290
2314.000000	5.377230
2313.000000	5.355719
2312.000000	5.342574
2311.000000	5.324648
2310.000000	5.295966
2309.000000	5.270218
2308.000000	5.248816
2307.000000	5.257072
2306.000000	5.236865
2305.000000	5.234475
2304.000000	5.235018
2303.000000	5.242840
2302.000000	5.257941
2301.000000	5.283364
2300.000000	5.316934
2299.000000	5.320845
2298.000000	5.358761
2297.000000	5.383206
2296.000000	5.411778
2295.000000	5.424598
2294.000000	5.455127
2293.000000	5.460124
2292.000000	5.466534
2291.000000	5.481418
2290.000000	5.521615
2289.000000	5.539433
2288.000000	5.530633
2287.000000	5.543452
2286.000000	5.531067
2285.000000	5.541605
2284.000000	5.529220
2283.000000	5.527808
2282.000000	5.518791
2281.000000	5.503038
2280.000000	5.480549
2279.000000	5.473596
2278.000000	5.465013
2277.000000	5.450238
2276.000000	5.441546
2275.000000	5.451324
2274.000000	5.448065
2273.000000	5.438504
2272.000000	5.440351
2271.000000	5.434485
2270.000000	5.453714
2269.000000	5.472292
2268.000000	5.462949
2267.000000	5.493151
2266.000000	5.524875
2265.000000	5.560944
2264.000000	5.584519
2263.000000	5.632973
2262.000000	5.691749
2261.000000	5.745852
2260.000000	5.809408
2259.000000	5.895887
2258.000000	5.961615
2257.000000	6.037773
2256.000000	6.130444
2255.000000	6.199323
2254.000000	6.303620
2253.000000	6.384232
2252.000000	6.482010
2251.000000	6.558059
2250.000000	6.648884
2249.000000	6.711461
2248.000000	6.795767
2247.000000	6.876380
2246.000000	6.931787
2245.000000	7.013377
2244.000000	7.084755
2243.000000	7.148854
2242.000000	7.220014
2241.000000	7.276508
2240.000000	7.306602
2239.000000	7.345061
2238.000000	7.405792
2237.000000	7.429367
2236.000000	7.482710
2235.000000	7.543441
2234.000000	7.575164
2233.000000	7.591135
2232.000000	7.623184
2231.000000	7.661535
2230.000000	7.676419
2229.000000	7.683480
2228.000000	7.694453
2227.000000	7.721070
2226.000000	7.737367
2225.000000	7.724112
2224.000000	7.726285
2223.000000	7.728567
2222.000000	7.728349
2221.000000	7.717811
2220.000000	7.708468
2219.000000	7.695322
2218.000000	7.700537
2217.000000	7.708359
2216.000000	7.689238
2215.000000	7.673268
2214.000000	7.658058
2213.000000	7.678917
2212.000000	7.652083
2211.000000	7.650996
2210.000000	7.616014
2209.000000	7.593416
2208.000000	7.606019
2207.000000	7.607322
2206.000000	7.586246
2205.000000	7.589722
2204.000000	7.593090
2203.000000	7.553762
2202.000000	7.573535
2201.000000	7.549199
2200.000000	7.560063
2199.000000	7.553979
2198.000000	7.544745
2197.000000	7.548547
2196.000000	7.531708
2195.000000	7.542246
2194.000000	7.520735
2193.000000	7.544745
2192.000000	7.525841
2191.000000	7.523559
2190.000000	7.514108
2189.000000	7.506394
2188.000000	7.499332
2187.000000	7.518345
2186.000000	7.511826
2185.000000	7.486187
2184.000000	7.508024
2183.000000	7.485752
2182.000000	7.468587
2181.000000	7.475866
2180.000000	7.480429
2179.000000	7.460004
2178.000000	7.438167
2177.000000	7.433930
2176.000000	7.441209
2175.000000	7.417308
2174.000000	7.437080
2173.000000	7.434147
2172.000000	7.445772
2171.000000	7.437515
2170.000000	7.438493
2169.000000	7.431322
2168.000000	7.441209
2167.000000	7.434039
2166.000000	7.450009
2165.000000	7.453920
2164.000000	7.474345
2163.000000	7.464567
2162.000000	7.482601
2161.000000	7.504656
2160.000000	7.503026
2159.000000	7.519431
2158.000000	7.528774
2157.000000	7.552350
2156.000000	7.552350
2155.000000	7.584290
2154.000000	7.585703
2153.000000	7.610799
2152.000000	7.644912
2151.000000	7.647520
2150.000000	7.661752
2149.000000	7.681090
2148.000000	7.712270
2147.000000	7.744211
2146.000000	7.757683
2145.000000	7.767460
2144.000000	7.785930
2143.000000	7.795381
2142.000000	7.805376
2141.000000	7.827865
2140.000000	7.838512
2139.000000	7.860567
2138.000000	7.865564
2137.000000	7.868063
2136.000000	7.894354
2135.000000	7.906848
2134.000000	7.905979
2133.000000	7.918255
2132.000000	7.929120
2131.000000	7.926729
2130.000000	7.947154
2129.000000	7.967905
2128.000000	7.966058
2127.000000	7.962147
2126.000000	7.966710
2125.000000	7.959648
2124.000000	7.959865
2123.000000	7.959213
2122.000000	7.949762
2121.000000	7.953890
2120.000000	7.955194
2119.000000	7.944329
2118.000000	7.924231
2117.000000	7.919994
2116.000000	7.935964
2115.000000	7.933900
2114.000000	7.902937
2113.000000	7.889574
2112.000000	7.889139
2111.000000	7.884794
2110.000000	7.873604
2109.000000	7.855678
2108.000000	7.845031
2107.000000	7.833949
2106.000000	7.828300
2105.000000	7.827322
2104.000000	7.805268
2103.000000	7.776152
2102.000000	7.766483
2101.000000	7.765396
2100.000000	7.752033
2099.000000	7.748991
2098.000000	7.741060
2097.000000	7.717594
2096.000000	7.704448
2095.000000	7.703470
2094.000000	7.701841
2093.000000	7.678917
2092.000000	7.657949
2091.000000	7.675658
2090.000000	7.675984
2089.000000	7.659362
2088.000000	7.648280
2087.000000	7.630789
2086.000000	7.615470
2085.000000	7.607974
2084.000000	7.601564
2083.000000	7.594829
2082.000000	7.584290
2081.000000	7.570601
2080.000000	7.560172
2079.000000	7.548982
2078.000000	7.537248
2077.000000	7.509001
2076.000000	7.490750
2075.000000	7.484883
2074.000000	7.463155
2073.000000	7.436863
2072.000000	7.416221
2071.000000	7.391668
2070.000000	7.374611
2069.000000	7.357229
2068.000000	7.346908
2067.000000	7.327569
2066.000000	7.282266
2065.000000	7.268251
2064.000000	7.269555
2063.000000	7.247392
2062.000000	7.240004
2061.000000	7.229031
2060.000000	7.211974
2059.000000	7.208715
2058.000000	7.201328
2057.000000	7.203718
2056.000000	7.203392
2055.000000	7.205021
2054.000000	7.219036
2053.000000	7.229357
2052.000000	7.239026
2051.000000	7.252715
2050.000000	7.285525
2049.000000	7.319856
2048.000000	7.354621
2047.000000	7.387866
2046.000000	7.412201
2045.000000	7.447510
2044.000000	7.500310
2043.000000	7.556478
2042.000000	7.572340
2041.000000	7.629703
2040.000000	7.682828
2039.000000	7.712053
2038.000000	7.751056
2037.000000	7.796251
2036.000000	7.837534
2035.000000	7.854483
2034.000000	7.886749
2033.000000	7.929446
2032.000000	7.976379
2031.000000	7.988873
2030.000000	8.011362
2029.000000	8.030917
2028.000000	8.063618
2027.000000	8.084477
2026.000000	8.109900
2025.000000	8.133258
2024.000000	8.145534
2023.000000	8.163786
2022.000000	8.171391
2021.000000	8.160744
2020.000000	8.187144
2019.000000	8.200290
2018.000000	8.208438
2017.000000	8.218107
2016.000000	8.226147
2015.000000	8.213761
2014.000000	8.229623
2013.000000	8.227124
2012.000000	8.222127
2011.000000	8.211480
2010.000000	8.219193
2009.000000	8.214522
2008.000000	8.211914
2007.000000	8.187687
2006.000000	8.167371
2005.000000	8.145752
2004.000000	8.155095
2003.000000	8.131628
2002.000000	8.115875
2001.000000	8.077742
2000.000000	8.072418
1999.000000	8.042868
1998.000000	8.011253
1997.000000	8.013860
1996.000000	7.983549
1995.000000	7.970947
1994.000000	7.921080
1993.000000	7.902068
1992.000000	7.865999
1991.000000	7.838078
1990.000000	7.796468
1989.000000	7.767895
1988.000000	7.743885
1987.000000	7.717159
1986.000000	7.674246
1985.000000	7.621772
1984.000000	7.630898
1983.000000	7.593416
1982.000000	7.563214
1981.000000	7.530947
1980.000000	7.484448
1979.000000	7.451313
1978.000000	7.415352
1977.000000	7.374177
1976.000000	7.356251
1975.000000	7.317357
1974.000000	7.259125
1973.000000	7.241308
1972.000000	7.238157
1971.000000	7.189486
1970.000000	7.163737
1969.000000	7.137663
1968.000000	7.112567
1967.000000	7.090947
1966.000000	7.086928
1965.000000	7.045752
1964.000000	6.992735
1963.000000	6.966987
1962.000000	6.966770
1961.000000	6.948518
1960.000000	6.927985
1959.000000	6.892133
1958.000000	6.861930
1957.000000	6.829990
1956.000000	6.817170
1955.000000	6.815323
1954.000000	6.782187
1953.000000	6.741121
1952.000000	6.711787
1951.000000	6.738513
1950.000000	6.698316
1949.000000	6.663442
1948.000000	6.639214
1947.000000	6.641605
1946.000000	6.607382
1945.000000	6.624656
1944.000000	6.601950
1943.000000	6.587827
1942.000000	6.549694
1941.000000	6.560123
1940.000000	6.564469
1939.000000	6.573052
1938.000000	6.549911
1937.000000	6.544261
1936.000000	6.563926
1935.000000	6.571422
1934.000000	6.577506
1933.000000	6.568271
1932.000000	6.598256
1931.000000	6.604232
1930.000000	6.632370
1929.000000	6.640953
1928.000000	6.673871
1927.000000	6.694296
1926.000000	6.735363
1925.000000	6.748291
1924.000000	6.787293
1923.000000	6.815323
1922.000000	6.862474
1921.000000	6.910276
1920.000000	6.990671
1919.000000	7.015876
1918.000000	7.078780
1917.000000	7.117130
1916.000000	7.172320
1915.000000	7.207629
1914.000000	7.280853
1913.000000	7.386888
1912.000000	7.450335
1911.000000	7.544527
1910.000000	7.613080
1909.000000	7.663382
1908.000000	7.743451
1907.000000	7.828734
1906.000000	7.920754
1905.000000	8.061771
1904.000000	8.175954
1903.000000	8.288181
1902.000000	8.414966
1901.000000	8.529366
1900.000000	8.654847
1899.000000	8.820200
1898.000000	8.974255
1897.000000	9.113533
1896.000000	9.255637
1895.000000	9.389049
1894.000000	9.494541
1893.000000	9.677168
1892.000000	9.862293
1891.000000	10.073819
1890.000000	10.301207
1889.000000	10.503172
1888.000000	10.738707
1887.000000	10.949255
1886.000000	11.175774
1885.000000	11.466174
1884.000000	11.780800
1883.000000	12.153985
1882.000000	12.525215
1881.000000	12.905353
1880.000000	13.255180
1879.000000	13.619673
1878.000000	13.991011
1877.000000	14.361914
1876.000000	14.729233
1875.000000	15.097963
1874.000000	15.464956
1873.000000	15.828254
1872.000000	16.218170
1871.000000	16.559740
1870.000000	16.877735
1869.000000	17.218544
1868.000000	17.503729
1867.000000	17.722208
1866.000000	17.913309
1865.000000	18.067798
1864.000000	18.215985
1863.000000	18.330494
1862.000000	18.435442
1861.000000	18.582760
1860.000000	18.726276
1859.000000	18.849911
1858.000000	18.959748
1857.000000	19.051442
1856.000000	19.114780
1855.000000	19.134661
1854.000000	19.178879
1853.000000	19.208864
1852.000000	19.231027
1851.000000	19.234720
1850.000000	19.220706
1849.000000	19.181812
1848.000000	19.202128
1847.000000	19.235046
1846.000000	19.222878
1845.000000	19.188765
1844.000000	19.132271
1843.000000	19.086316
1842.000000	19.065782
1841.000000	19.070237
1840.000000	19.083817
1839.000000	19.066434
1838.000000	19.049051
1837.000000	19.008093
1836.000000	18.966918
1835.000000	18.949210
1834.000000	18.913249
1833.000000	18.856212
1832.000000	18.777338
1831.000000	18.703570
1830.000000	18.652943
1829.000000	18.606770
1828.000000	18.548864
1827.000000	18.477269
1826.000000	18.412736
1825.000000	18.366020
1824.000000	18.317348
1823.000000	18.247818
1822.000000	18.191215
1821.000000	18.179156
1820.000000	18.176005
1819.000000	18.175679
1818.000000	18.155906
1817.000000	18.119729
1816.000000	18.088657
1815.000000	18.067363
1814.000000	18.063995
1813.000000	18.048242
1812.000000	18.034988
1811.000000	18.007719
1810.000000	17.984035
1809.000000	17.948183
1808.000000	17.906899
1807.000000	17.869201
1806.000000	17.826070
1805.000000	17.782722
1804.000000	17.732638
1803.000000	17.685378
1802.000000	17.635512
1801.000000	17.589448
1800.000000	17.552618
1799.000000	17.516006
1798.000000	17.452016
1797.000000	17.398238
1796.000000	17.367818
1795.000000	17.325231
1794.000000	17.281991
1793.000000	17.243532
1792.000000	17.183562
1791.000000	17.126307
1790.000000	17.092628
1789.000000	17.040806
1788.000000	16.970841
1787.000000	16.927275
1786.000000	16.871977
1785.000000	16.805379
1784.000000	16.748885
1783.000000	16.685221
1782.000000	16.616234
1781.000000	16.540836
1780.000000	16.458920
1779.000000	16.409814
1778.000000	16.347236
1777.000000	16.271622
1776.000000	16.179167
1775.000000	16.089320
1774.000000	16.012945
1773.000000	15.927987
1772.000000	15.824452
1771.000000	15.723741
1770.000000	15.631829
1769.000000	15.519820
1768.000000	15.422042
1767.000000	15.358921
1766.000000	15.290585
1765.000000	15.206496
1764.000000	15.139247
1763.000000	15.106329
1762.000000	15.099158
1761.000000	15.114260
1760.000000	15.137618
1759.000000	15.184551
1758.000000	15.236808
1757.000000	15.311227
1756.000000	15.360659
1755.000000	15.414220
1754.000000	15.448768
1753.000000	15.477993
1752.000000	15.510802
1751.000000	15.506565
1750.000000	15.486249
1749.000000	15.467346
1748.000000	15.425410
1747.000000	15.375652
1746.000000	15.315790
1745.000000	15.239850
1744.000000	15.131316
1743.000000	15.004097
1742.000000	14.875791
1741.000000	14.734122
1740.000000	14.581914
1739.000000	14.392117
1738.000000	14.214922
1737.000000	14.055870
1736.000000	13.921372
1735.000000	13.805994
1734.000000	13.724512
1733.000000	13.677905
1732.000000	13.679861
1731.000000	13.693332
1730.000000	13.757105
1729.000000	13.830438
1728.000000	13.917569
1727.000000	14.006330
1726.000000	14.075100
1725.000000	14.140285
1724.000000	14.209599
1723.000000	14.250448
1722.000000	14.296077
1721.000000	14.316611
1720.000000	14.342250
1719.000000	14.376798
1718.000000	14.413628
1717.000000	14.457954
1716.000000	14.515208
1715.000000	14.558665
1714.000000	14.596798
1713.000000	14.669154
1712.000000	14.731406
1711.000000	14.770082
1710.000000	14.807020
1709.000000	14.825815
1708.000000	14.821361
1707.000000	14.824946
1706.000000	14.786052
1705.000000	14.754764
1704.000000	14.717825
1703.000000	14.656008
1702.000000	14.576808
1701.000000	14.505648
1700.000000	14.395159
1699.000000	14.281954
1698.000000	14.152453
1697.000000	14.025451
1696.000000	13.923219
1695.000000	13.910290
1694.000000	13.878241
1693.000000	13.927564
1692.000000	14.021757
1691.000000	14.133115
1690.000000	14.256315
1689.000000	14.361589
1688.000000	14.469687
1687.000000	14.568225
1686.000000	14.598428
1685.000000	14.636996
1684.000000	14.689578
1683.000000	14.791267
1682.000000	14.995514
1681.000000	15.252995
1680.000000	15.587286
1679.000000	16.002842
1678.000000	16.467720
1677.000000	16.921191
1676.000000	17.364885
1675.000000	17.777181
1674.000000	18.124618
1673.000000	18.461190
1672.000000	18.757348
1671.000000	18.989842
1670.000000	19.193545
1669.000000	19.369219
1668.000000	19.543263
1667.000000	19.704379
1666.000000	19.823994
1665.000000	19.899392
1664.000000	19.970769
1663.000000	20.067352
1662.000000	20.159263
1661.000000	20.210542
1660.000000	20.244221
1659.000000	20.312557
1658.000000	20.335154
1657.000000	20.376003
1656.000000	20.397623
1655.000000	20.409900
1654.000000	20.411529
1653.000000	20.389041
1652.000000	20.378068
1651.000000	20.347539
1650.000000	20.335154
1649.000000	20.301910
1648.000000	20.282028
1647.000000	20.240744
1646.000000	20.192616
1645.000000	20.113959
1644.000000	20.083322
1643.000000	20.049643
1642.000000	19.990216
1641.000000	19.938503
1640.000000	19.900695
1639.000000	19.818997
1638.000000	19.789663
1637.000000	19.706444
1636.000000	19.641367
1635.000000	19.556844
1634.000000	19.501328
1633.000000	19.408765
1632.000000	19.360528
1631.000000	19.257209
1630.000000	19.191155
1629.000000	19.140854
1628.000000	19.053940
1627.000000	18.987560
1626.000000	18.896192
1625.000000	18.806128
1624.000000	18.723126
1623.000000	18.653160
1622.000000	18.567442
1621.000000	18.522356
1620.000000	18.425882
1619.000000	18.352005
1618.000000	18.286603
1617.000000	18.221092
1616.000000	18.156667
1615.000000	18.072578
1614.000000	18.028361
1613.000000	17.979037
1612.000000	17.901576
1611.000000	17.832262
1610.000000	17.757517
1609.000000	17.677665
1608.000000	17.644855
1607.000000	17.569458
1606.000000	17.509705
1605.000000	17.439087
1604.000000	17.386287
1603.000000	17.320124
1602.000000	17.263196
1601.000000	17.188994
1600.000000	17.108490
1599.000000	17.029833
1598.000000	16.988658
1597.000000	16.930969
1596.000000	16.871542
1595.000000	16.801251
1594.000000	16.752796
1593.000000	16.699997
1592.000000	16.661103
1591.000000	16.612323
1590.000000	16.554634
1589.000000	16.490209
1588.000000	16.435454
1587.000000	16.396560
1586.000000	16.361903
1585.000000	16.314970
1584.000000	16.276076
1583.000000	16.237399
1582.000000	16.208827
1581.000000	16.179711
1580.000000	16.148856
