PE UV       SUBTECH     SPECTRUM    ASCII       PEDS        4.00        
   -1
CICIMAUCR0248-1.ASC
24/06/27
12:57:29.00
24/06/27
12:57:29.00
Vinicio Soto Monge
C. resplendens. Sex F. Ventral
250,000000
1
Lambda 1050
1050L1511233
PerkinElmer UV WinLab 6.3.2.0749 / 2.02.05 Lambda 900 UV/VIS/NIR, Aug  7 2015 09:38:08

0
0
3350/servo 860,8/2
0
0
UV/VIS
1
1
1
DoubleDePol,CommonBeamDepol,RBeamAtt,SBeamAtt,60mm sphere, WB InGaAs Detector
0
0
0
0
Program
Program
3350/servo 860,8/2
3350/0,2 860,8/0,2
3350/0,2 860,8/0,2
0
15.00
 
 
 
0
 
860,8
319,2
860,8
Front
100
on
S:100 R:100
0
0
0
0
 
0
 
 
 
0
 
 
0
0
0
0
0
 
 
 
 
0
0


0
0
#HDR
-1
-1
#GR
nm
%R
1.0
0.0
2500,000000
-1,000000
2251
8
59,749000
4,287000
#DATA
2482.000000	5.599737
2481.000000	5.584282
2480.000000	5.625679
2479.000000	5.577438
2478.000000	5.545867
2477.000000	5.587594
2476.000000	5.564081
2475.000000	5.606581
2474.000000	5.568718
2473.000000	5.576445
2472.000000	5.575451
2471.000000	5.577659
2470.000000	5.618945
2469.000000	5.554698
2468.000000	5.602055
2467.000000	5.591899
2466.000000	5.587925
2465.000000	5.541562
2464.000000	5.526769
2463.000000	5.602166
2462.000000	5.651179
2461.000000	5.649412
2460.000000	5.598633
2459.000000	5.623250
2458.000000	5.633185
2457.000000	5.670276
2456.000000	5.653828
2455.000000	5.646653
2454.000000	5.674692
2453.000000	5.737172
2452.000000	5.715977
2451.000000	5.748763
2450.000000	5.756601
2449.000000	5.789718
2448.000000	5.825815
2447.000000	5.839945
2446.000000	5.857276
2445.000000	5.864672
2444.000000	5.924062
2443.000000	5.914348
2442.000000	5.925055
2441.000000	5.959166
2440.000000	5.998575
2439.000000	6.020322
2438.000000	6.048913
2437.000000	6.060172
2436.000000	6.084900
2435.000000	6.091081
2434.000000	6.133582
2433.000000	6.166919
2432.000000	6.173653
2431.000000	6.193302
2430.000000	6.199595
2429.000000	6.229179
2428.000000	6.241763
2427.000000	6.258432
2426.000000	6.275653
2425.000000	6.295854
2424.000000	6.333608
2423.000000	6.363192
2422.000000	6.369263
2421.000000	6.390348
2420.000000	6.408010
2419.000000	6.400835
2418.000000	6.419049
2417.000000	6.443445
2416.000000	6.463867
2415.000000	6.472919
2414.000000	6.479874
2413.000000	6.505374
2412.000000	6.521380
2411.000000	6.545004
2410.000000	6.561452
2409.000000	6.564322
2408.000000	6.565205
2407.000000	6.585186
2406.000000	6.600640
2405.000000	6.606491
2404.000000	6.621504
2403.000000	6.630335
2402.000000	6.651419
2401.000000	6.641153
2400.000000	6.654842
2399.000000	6.665108
2398.000000	6.682991
2397.000000	6.704958
2396.000000	6.733549
2395.000000	6.726374
2394.000000	6.729244
2393.000000	6.756069
2392.000000	6.765783
2391.000000	6.765894
2390.000000	6.774835
2389.000000	6.788634
2388.000000	6.792277
2387.000000	6.809387
2386.000000	6.834004
2385.000000	6.833562
2384.000000	6.843498
2383.000000	6.858290
2382.000000	6.860829
2381.000000	6.855972
2380.000000	6.841179
2379.000000	6.852991
2378.000000	6.851225
2377.000000	6.856634
2376.000000	6.856965
2375.000000	6.854316
2374.000000	6.860939
2373.000000	6.847030
2372.000000	6.848465
2371.000000	6.851004
2370.000000	6.845485
2369.000000	6.842504
2368.000000	6.838861
2367.000000	6.829478
2366.000000	6.821861
2365.000000	6.818770
2364.000000	6.809829
2363.000000	6.802543
2362.000000	6.791725
2361.000000	6.767549
2360.000000	6.767549
2359.000000	6.754965
2358.000000	6.741608
2357.000000	6.734874
2356.000000	6.727036
2355.000000	6.730127
2354.000000	6.731452
2353.000000	6.733660
2352.000000	6.721738
2351.000000	6.709926
2350.000000	6.708932
2349.000000	6.734322
2348.000000	6.739069
2347.000000	6.729686
2346.000000	6.753420
2345.000000	6.773069
2344.000000	6.775497
2343.000000	6.785764
2342.000000	6.785874
2341.000000	6.794484
2340.000000	6.812588
2339.000000	6.822523
2338.000000	6.828153
2337.000000	6.845153
2336.000000	6.858290
2335.000000	6.863147
2334.000000	6.852991
2333.000000	6.842946
2332.000000	6.856965
2331.000000	6.875842
2330.000000	6.863478
2329.000000	6.850452
2328.000000	6.833894
2327.000000	6.847361
2326.000000	6.834004
2325.000000	6.814134
2324.000000	6.794705
2323.000000	6.786978
2322.000000	6.776712
2321.000000	6.765783
2320.000000	6.736971
2319.000000	6.722731
2318.000000	6.693809
2317.000000	6.666653
2316.000000	6.647114
2315.000000	6.609251
2314.000000	6.575361
2313.000000	6.545445
2312.000000	6.535731
2311.000000	6.515309
2310.000000	6.489478
2309.000000	6.460335
2308.000000	6.442452
2307.000000	6.424017
2306.000000	6.409997
2305.000000	6.405140
2304.000000	6.393328
2303.000000	6.387588
2302.000000	6.398517
2301.000000	6.405802
2300.000000	6.417393
2299.000000	6.430751
2298.000000	6.449075
2297.000000	6.474244
2296.000000	6.486497
2295.000000	6.539153
2294.000000	6.555380
2293.000000	6.555160
2292.000000	6.583751
2291.000000	6.601855
2290.000000	6.620510
2289.000000	6.634751
2288.000000	6.641595
2287.000000	6.657601
2286.000000	6.669634
2285.000000	6.668640
2284.000000	6.650536
2283.000000	6.657822
2282.000000	6.658816
2281.000000	6.656939
2280.000000	6.640270
2279.000000	6.641153
2278.000000	6.627465
2277.000000	6.634088
2276.000000	6.607484
2275.000000	6.593023
2274.000000	6.613445
2273.000000	6.596666
2272.000000	6.554056
2271.000000	6.567523
2270.000000	6.569179
2269.000000	6.569731
2268.000000	6.584744
2267.000000	6.596225
2266.000000	6.637069
2265.000000	6.681666
2264.000000	6.691381
2263.000000	6.717764
2262.000000	6.766114
2261.000000	6.827712
2260.000000	6.905095
2259.000000	6.976517
2258.000000	7.061517
2257.000000	7.146296
2256.000000	7.208556
2255.000000	7.289141
2254.000000	7.399420
2253.000000	7.486076
2252.000000	7.563238
2251.000000	7.680472
2250.000000	7.768784
2249.000000	7.860186
2248.000000	7.946070
2247.000000	8.006894
2246.000000	8.092777
2245.000000	8.174245
2244.000000	8.264102
2243.000000	8.309031
2242.000000	8.362680
2241.000000	8.432226
2240.000000	8.488083
2239.000000	8.506518
2238.000000	8.549680
2237.000000	8.603330
2236.000000	8.602226
2235.000000	8.688992
2234.000000	8.707538
2233.000000	8.722219
2232.000000	8.733148
2231.000000	8.741979
2230.000000	8.754674
2229.000000	8.771895
2228.000000	8.798278
2227.000000	8.779732
2226.000000	8.800817
2225.000000	8.789116
2224.000000	8.790219
2223.000000	8.771564
2222.000000	8.768252
2221.000000	8.755116
2220.000000	8.748382
2219.000000	8.727077
2218.000000	8.698486
2217.000000	8.685460
2216.000000	8.664596
2215.000000	8.641525
2214.000000	8.614921
2213.000000	8.625076
2212.000000	8.584453
2211.000000	8.552440
2210.000000	8.543830
2209.000000	8.525505
2208.000000	8.527382
2207.000000	8.488414
2206.000000	8.489297
2205.000000	8.480135
2204.000000	8.482122
2203.000000	8.453972
2202.000000	8.435758
2201.000000	8.434654
2200.000000	8.416440
2199.000000	8.415667
2198.000000	8.400985
2197.000000	8.410921
2196.000000	8.403083
2195.000000	8.379901
2194.000000	8.380232
2193.000000	8.358044
2192.000000	8.354401
2191.000000	8.350648
2190.000000	8.350869
2189.000000	8.358817
2188.000000	8.359479
2187.000000	8.346674
2186.000000	8.320511
2185.000000	8.326914
2184.000000	8.316096
2183.000000	8.301193
2182.000000	8.293576
2181.000000	8.290596
2180.000000	8.269843
2179.000000	8.270836
2178.000000	8.246771
2177.000000	8.262115
2176.000000	8.237167
2175.000000	8.237167
2174.000000	8.239706
2173.000000	8.226018
2172.000000	8.227232
2171.000000	8.251739
2170.000000	8.241914
2169.000000	8.263771
2168.000000	8.263219
2167.000000	8.267193
2166.000000	8.253946
2165.000000	8.243349
2164.000000	8.282096
2163.000000	8.284855
2162.000000	8.278232
2161.000000	8.296005
2160.000000	8.307154
2159.000000	8.311901
2158.000000	8.338946
2157.000000	8.365661
2156.000000	8.377804
2155.000000	8.381226
2154.000000	8.420304
2153.000000	8.440395
2152.000000	8.467550
2151.000000	8.493161
2150.000000	8.510382
2149.000000	8.523518
2148.000000	8.553434
2147.000000	8.595492
2146.000000	8.622096
2145.000000	8.648810
2144.000000	8.665369
2143.000000	8.687999
2142.000000	8.703453
2141.000000	8.733921
2140.000000	8.764609
2139.000000	8.783596
2138.000000	8.809317
2137.000000	8.818921
2136.000000	8.846518
2135.000000	8.873674
2134.000000	8.872791
2133.000000	8.882174
2132.000000	8.912752
2131.000000	8.923791
2130.000000	8.938694
2129.000000	8.947745
2128.000000	8.944103
2127.000000	8.951720
2126.000000	8.977109
2125.000000	8.984174
2124.000000	8.993005
2123.000000	8.986382
2122.000000	8.989583
2121.000000	8.988479
2120.000000	8.988038
2119.000000	8.996869
2118.000000	8.987927
2117.000000	8.987265
2116.000000	8.990466
2115.000000	8.993668
2114.000000	8.981635
2113.000000	8.968720
2112.000000	8.958453
2111.000000	8.943992
2110.000000	8.944655
2109.000000	8.932622
2108.000000	8.925999
2107.000000	8.914187
2106.000000	8.910103
2105.000000	8.899064
2104.000000	8.882726
2103.000000	8.864843
2102.000000	8.851927
2101.000000	8.837466
2100.000000	8.821570
2099.000000	8.830732
2098.000000	8.828635
2097.000000	8.799051
2096.000000	8.786687
2095.000000	8.792206
2094.000000	8.782051
2093.000000	8.772667
2092.000000	8.765823
2091.000000	8.756109
2090.000000	8.746505
2089.000000	8.731271
2088.000000	8.723434
2087.000000	8.705219
2086.000000	8.706765
2085.000000	8.711180
2084.000000	8.692745
2083.000000	8.682258
2082.000000	8.668128
2081.000000	8.647927
2080.000000	8.636778
2079.000000	8.615252
2078.000000	8.583901
2077.000000	8.574408
2076.000000	8.562044
2075.000000	8.539856
2074.000000	8.512589
2073.000000	8.482784
2072.000000	8.462804
2071.000000	8.431011
2070.000000	8.395576
2069.000000	8.366875
2068.000000	8.324154
2067.000000	8.289713
2066.000000	8.259797
2065.000000	8.226570
2064.000000	8.199635
2063.000000	8.185394
2062.000000	8.152829
2061.000000	8.112979
2060.000000	8.082953
2059.000000	8.068271
2058.000000	8.069154
2057.000000	8.048622
2056.000000	8.027868
2055.000000	8.019037
2054.000000	8.010648
2053.000000	8.013628
2052.000000	8.009654
2051.000000	8.004907
2050.000000	8.018264
2049.000000	8.052816
2048.000000	8.081187
2047.000000	8.110329
2046.000000	8.139583
2045.000000	8.163316
2044.000000	8.204933
2043.000000	8.240700
2042.000000	8.268628
2041.000000	8.302959
2040.000000	8.336959
2039.000000	8.369745
2038.000000	8.400654
2037.000000	8.434765
2036.000000	8.482674
2035.000000	8.530804
2034.000000	8.553102
2033.000000	8.560167
2032.000000	8.581362
2031.000000	8.610726
2030.000000	8.632914
2029.000000	8.646713
2028.000000	8.659408
2027.000000	8.676408
2026.000000	8.696057
2025.000000	8.711512
2024.000000	8.711070
2023.000000	8.722440
2022.000000	8.712726
2021.000000	8.733038
2020.000000	8.735797
2019.000000	8.743856
2018.000000	8.750921
2017.000000	8.751473
2016.000000	8.762622
2015.000000	8.740434
2014.000000	8.751693
2013.000000	8.748271
2012.000000	8.733921
2011.000000	8.729726
2010.000000	8.726635
2009.000000	8.707096
2008.000000	8.683693
2007.000000	8.673869
2006.000000	8.674421
2005.000000	8.636999
2004.000000	8.632914
2003.000000	8.596706
2002.000000	8.570213
2001.000000	8.554427
2000.000000	8.513252
1999.000000	8.509719
1998.000000	8.483998
1997.000000	8.443044
1996.000000	8.410258
1995.000000	8.383102
1994.000000	8.371511
1993.000000	8.334200
1992.000000	8.290706
1991.000000	8.258362
1990.000000	8.212992
1989.000000	8.176122
1988.000000	8.153271
1987.000000	8.118609
1986.000000	8.090349
1985.000000	8.069485
1984.000000	8.005349
1983.000000	7.957219
1982.000000	7.953907
1981.000000	7.918251
1980.000000	7.878290
1979.000000	7.852790
1978.000000	7.810842
1977.000000	7.774745
1976.000000	7.739420
1975.000000	7.681245
1974.000000	7.669543
1973.000000	7.642719
1972.000000	7.598452
1971.000000	7.567102
1970.000000	7.549550
1969.000000	7.496894
1968.000000	7.485855
1967.000000	7.447771
1966.000000	7.408913
1965.000000	7.366413
1964.000000	7.362771
1963.000000	7.321595
1962.000000	7.317069
1961.000000	7.280641
1960.000000	7.252712
1959.000000	7.216946
1958.000000	7.189128
1957.000000	7.144309
1956.000000	7.143647
1955.000000	7.120576
1954.000000	7.095517
1953.000000	7.070679
1952.000000	7.022881
1951.000000	7.032816
1950.000000	6.984907
1949.000000	6.954550
1948.000000	6.983803
1947.000000	6.936446
1946.000000	6.924744
1945.000000	6.907082
1944.000000	6.880257
1943.000000	6.858511
1942.000000	6.847582
1941.000000	6.855640
1940.000000	6.832348
1939.000000	6.818108
1938.000000	6.828595
1937.000000	6.818660
1936.000000	6.813582
1935.000000	6.838751
1934.000000	6.834004
1933.000000	6.842062
1932.000000	6.838640
1931.000000	6.846368
1930.000000	6.868446
1929.000000	6.893173
1928.000000	6.887764
1927.000000	6.934017
1926.000000	6.973978
1925.000000	6.973095
1924.000000	7.011842
1923.000000	7.066153
1922.000000	7.112848
1921.000000	7.137465
1920.000000	7.170030
1919.000000	7.252712
1918.000000	7.284504
1917.000000	7.336719
1916.000000	7.392355
1915.000000	7.450310
1914.000000	7.498660
1913.000000	7.602758
1912.000000	7.688420
1911.000000	7.770219
1910.000000	7.847492
1909.000000	7.920128
1908.000000	8.008550
1907.000000	8.082842
1906.000000	8.216966
1905.000000	8.321394
1904.000000	8.477927
1903.000000	8.600901
1902.000000	8.740765
1901.000000	8.880629
1900.000000	8.998966
1899.000000	9.191155
1898.000000	9.394382
1897.000000	9.560077
1896.000000	9.728090
1895.000000	9.896103
1894.000000	10.088402
1893.000000	10.296045
1892.000000	10.509980
1891.000000	10.756039
1890.000000	11.030578
1889.000000	11.267033
1888.000000	11.539695
1887.000000	11.806948
1886.000000	12.071773
1885.000000	12.361988
1884.000000	12.679800
1883.000000	13.023774
1882.000000	13.385962
1881.000000	13.718566
1880.000000	14.082521
1879.000000	14.402982
1878.000000	14.730177
1877.000000	15.076801
1876.000000	15.405100
1875.000000	15.734944
1874.000000	16.103646
1873.000000	16.433601
1872.000000	16.776471
1871.000000	17.082361
1870.000000	17.411322
1869.000000	17.712906
1868.000000	18.020342
1867.000000	18.252712
1866.000000	18.470952
1865.000000	18.659056
1864.000000	18.835680
1863.000000	18.984706
1862.000000	19.110219
1861.000000	19.291148
1860.000000	19.454745
1859.000000	19.612382
1858.000000	19.762953
1857.000000	19.885486
1856.000000	19.996979
1855.000000	20.076681
1854.000000	20.176473
1853.000000	20.235421
1852.000000	20.268427
1851.000000	20.328479
1850.000000	20.366785
1849.000000	20.393830
1848.000000	20.434785
1847.000000	20.490642
1846.000000	20.517467
1845.000000	20.504109
1844.000000	20.471103
1843.000000	20.449135
1842.000000	20.449798
1841.000000	20.487993
1840.000000	20.507973
1839.000000	20.493291
1838.000000	20.470109
1837.000000	20.456531
1836.000000	20.434454
1835.000000	20.408733
1834.000000	20.376830
1833.000000	20.339077
1832.000000	20.283440
1831.000000	20.254739
1830.000000	20.233434
1829.000000	20.185304
1828.000000	20.150531
1827.000000	20.109135
1826.000000	20.059681
1825.000000	20.023914
1824.000000	19.978213
1823.000000	19.935051
1822.000000	19.912310
1821.000000	19.905687
1820.000000	19.907784
1819.000000	19.884603
1818.000000	19.855018
1817.000000	19.821349
1816.000000	19.813732
1815.000000	19.806999
1814.000000	19.782271
1813.000000	19.754895
1812.000000	19.741758
1811.000000	19.716479
1810.000000	19.679278
1809.000000	19.647044
1808.000000	19.622206
1807.000000	19.591297
1806.000000	19.548356
1805.000000	19.523628
1804.000000	19.494154
1803.000000	19.440394
1802.000000	19.395907
1801.000000	19.377914
1800.000000	19.339057
1799.000000	19.302076
1798.000000	19.254719
1797.000000	19.207693
1796.000000	19.170161
1795.000000	19.120927
1794.000000	19.074784
1793.000000	19.044868
1792.000000	19.017160
1791.000000	18.981725
1790.000000	18.944414
1789.000000	18.907102
1788.000000	18.867251
1787.000000	18.837446
1786.000000	18.801459
1785.000000	18.755537
1784.000000	18.722972
1783.000000	18.688972
1782.000000	18.632452
1781.000000	18.566108
1780.000000	18.524933
1779.000000	18.498991
1778.000000	18.461790
1777.000000	18.419069
1776.000000	18.359569
1775.000000	18.303933
1774.000000	18.243550
1773.000000	18.178309
1772.000000	18.115829
1771.000000	18.046725
1770.000000	17.992524
1769.000000	17.935231
1768.000000	17.870101
1767.000000	17.799010
1766.000000	17.743816
1765.000000	17.700322
1764.000000	17.642919
1763.000000	17.600751
1762.000000	17.596225
1761.000000	17.594900
1760.000000	17.611017
1759.000000	17.649322
1758.000000	17.674160
1757.000000	17.719309
1756.000000	17.771413
1755.000000	17.810932
1754.000000	17.854868
1753.000000	17.895822
1752.000000	17.914920
1751.000000	17.919004
1750.000000	17.931368
1749.000000	17.942848
1748.000000	17.933244
1747.000000	17.898140
1746.000000	17.865023
1745.000000	17.828374
1744.000000	17.803316
1743.000000	17.741939
1742.000000	17.646562
1741.000000	17.550082
1740.000000	17.440796
1739.000000	17.306452
1738.000000	17.174426
1737.000000	17.063484
1736.000000	16.937419
1735.000000	16.846127
1734.000000	16.754503
1733.000000	16.703724
1732.000000	16.674912
1731.000000	16.658575
1730.000000	16.662549
1729.000000	16.680653
1728.000000	16.710237
1727.000000	16.755938
1726.000000	16.790822
1725.000000	16.851757
1724.000000	16.922296
1723.000000	16.973075
1722.000000	17.030036
1721.000000	17.064919
1720.000000	17.117906
1719.000000	17.187893
1718.000000	17.243309
1717.000000	17.329192
1716.000000	17.418718
1715.000000	17.496543
1714.000000	17.587173
1713.000000	17.673056
1712.000000	17.745582
1711.000000	17.837316
1710.000000	17.902004
1709.000000	17.958855
1708.000000	17.976075
1707.000000	18.001796
1706.000000	17.999368
1705.000000	17.981926
1704.000000	18.001465
1703.000000	17.961283
1702.000000	17.918010
1701.000000	17.845374
1700.000000	17.761257
1699.000000	17.698777
1698.000000	17.584965
1697.000000	17.501069
1696.000000	17.398296
1695.000000	17.352815
1694.000000	17.307004
1693.000000	17.295744
1692.000000	17.290445
1691.000000	17.345530
1690.000000	17.392887
1689.000000	17.485835
1688.000000	17.545666
1687.000000	17.607153
1686.000000	17.688069
1685.000000	17.730017
1684.000000	17.827601
1683.000000	17.935562
1682.000000	18.035686
1681.000000	18.216725
1680.000000	18.436842
1679.000000	18.720654
1678.000000	19.050719
1677.000000	19.363342
1676.000000	19.697823
1675.000000	19.998966
1674.000000	20.305518
1673.000000	20.547493
1672.000000	20.807902
1671.000000	21.003733
1670.000000	21.223740
1669.000000	21.378285
1668.000000	21.530733
1667.000000	21.675675
1666.000000	21.783195
1665.000000	21.903519
1664.000000	22.000441
1663.000000	22.106967
1662.000000	22.185896
1661.000000	22.228948
1660.000000	22.287455
1659.000000	22.362630
1658.000000	22.404688
1657.000000	22.459331
1656.000000	22.468494
1655.000000	22.503377
1654.000000	22.510000
1653.000000	22.515188
1652.000000	22.515520
1651.000000	22.522695
1650.000000	22.487701
1649.000000	22.464299
1648.000000	22.445864
1647.000000	22.421026
1646.000000	22.391331
1645.000000	22.357994
1644.000000	22.309864
1643.000000	22.264273
1642.000000	22.226740
1641.000000	22.196935
1640.000000	22.148143
1639.000000	22.111604
1638.000000	22.051883
1637.000000	22.005519
1636.000000	21.946571
1635.000000	21.917318
1634.000000	21.833201
1633.000000	21.795669
1632.000000	21.743785
1631.000000	21.656798
1630.000000	21.590344
1629.000000	21.529740
1628.000000	21.469688
1627.000000	21.406876
1626.000000	21.339980
1625.000000	21.252110
1624.000000	21.195921
1623.000000	21.126376
1622.000000	21.061688
1621.000000	20.995123
1620.000000	20.938382
1619.000000	20.873252
1618.000000	20.814967
1617.000000	20.737584
1616.000000	20.677421
1615.000000	20.637681
1614.000000	20.570674
1613.000000	20.511616
1612.000000	20.448804
1611.000000	20.385440
1610.000000	20.317661
1609.000000	20.267324
1608.000000	20.197557
1607.000000	20.143908
1606.000000	20.061336
1605.000000	19.988479
1604.000000	19.910986
1603.000000	19.849719
1602.000000	19.785693
1601.000000	19.721557
1600.000000	19.645388
1599.000000	19.564031
1598.000000	19.509057
1597.000000	19.444920
1596.000000	19.387739
1595.000000	19.326031
1594.000000	19.262446
1593.000000	19.207141
1592.000000	19.145764
1591.000000	19.086485
1590.000000	19.026875
1589.000000	18.975102
1588.000000	18.919134
1587.000000	18.867472
1586.000000	18.833141
1585.000000	18.747368
1584.000000	18.721647
1583.000000	18.671199
1582.000000	18.608939
1581.000000	18.561141
1580.000000	18.513121
